Frequency (Hz)			Level (dB)
172.265625			-9.465007
344.53125			-17.27903
516.796875			-21.043514
689.0625			-24.853615
861.328125			-26.510674
1033.59375			-28.740574
1205.859375			-28.313196
1378.125			-29.112236
1550.390625			-30.720486
1722.65625			-32.30481
1894.921875			-32.952732
2067.1875			-32.994209
2239.453125			-34.64793
2411.71875			-35.169884
2583.984375			-35.930004
2756.25			-35.448013
2928.515625			-34.584915
3100.78125			-34.834198
3273.046875			-35.19101
3445.3125			-34.522827
3617.578125			-34.622993
3789.84375			-37.718601
3962.109375			-38.715378
4134.375			-37.795864
4306.640625			-39.437534
4478.90625			-37.759769
4651.171875			-37.428249
4823.4375			-36.918365
4995.703125			-37.277294
5167.96875			-37.693474
5340.234375			-38.431644
5512.5			-40.218517
5684.765625			-39.216923
5857.03125			-39.736958
6029.296875			-39.020885
6201.5625			-37.535847
6373.828125			-39.221996
6546.09375			-42.644001
6718.359375			-43.111744
6890.625			-43.508732
7062.890625			-42.592865
7235.15625			-41.140022
7407.421875			-41.923428
7579.6875			-42.541958
7751.953125			-43.408787
7924.21875			-43.317051
8096.484375			-43.143726
8268.75			-44.700054
8441.015625			-46.970249
8613.28125			-45.000187
8785.546875			-44.252598
8957.8125			-46.701748
9130.078125			-49.916279
9302.34375			-49.770889
9474.609375			-51.62949
9646.875			-51.8223
9819.140625			-49.111912
9991.40625			-51.724888
10163.67188			-51.883018
10335.9375			-50.073967
10508.20313			-52.173763
10680.46875			-52.116802
10852.73438			-50.764153
11025			-53.458557
11197.26563			-54.636921
11369.53125			-53.387257
11541.79688			-53.36557
11714.0625			-54.25354
11886.32813			-53.733593
12058.59375			-56.458286
12230.85938			-53.835144
12403.125			-52.473541
12575.39063			-56.67374
12747.65625			-57.569675
12919.92188			-58.969975
13092.1875			-59.579762
13264.45313			-58.245007
13436.71875			-57.185822
13608.98438			-57.868313
13781.25			-58.234753
13953.51563			-59.54554
14125.78125			-59.807175
14298.04688			-59.435204
14470.3125			-60.188686
14642.57813			-61.472309
14814.84375			-60.890923
14987.10938			-62.961056
15159.375			-61.481525
15331.64063			-62.421078
15503.90625			-64.062637
15676.17188			-64.992935
15848.4375			-65.353973
16020.70313			-66.163811
16192.96875			-65.669403
16365.23438			-65.082329
16537.5			-66.913635
16709.76563			-68.308456
16882.03125			-68.043083
17054.29688			-67.603722
17226.5625			-70.392776
17398.82813			-71.761955
17571.09375			-71.775093
17743.35938			-71.474747
17915.625			-71.438393
18087.89063			-73.378181
18260.15625			-71.530891
18432.42188			-72.154282
18604.6875			-72.381042
18776.95313			-74.319717
18949.21875			-75.713219
19121.48438			-72.927628
19293.75			-73.533577
19466.01563			-76.836349
19638.28125			-78.095238
19810.54688			-78.313362
19982.8125			-78.632095
20155.07813			-80.42485
20327.34375			-81.311234
20499.60938			-80.586487
20671.875			-83.191551
20844.14063			-84.313644
21016.40625			-86.517532
21188.67188			-87.690453
21360.9375			-87.455025
21533.20313			-88.006821
21705.46875			-88.200363
21877.73438			-87.633606
