Frequency (Hz)			Level (dB)
172.265625			-9.504296
344.53125			-17.318333
516.796875			-21.082817
689.0625			-24.892918
861.328125			-26.549976
1033.59375			-28.779877
1205.859375			-28.352499
1378.125			-29.151539
1550.390625			-30.759789
1722.65625			-32.344112
1894.921875			-32.992035
2067.1875			-33.033512
2239.453125			-34.687233
2411.71875			-35.209187
2583.984375			-35.969307
2756.25			-35.487316
2928.515625			-34.624218
3100.78125			-34.873501
3273.046875			-35.230312
3445.3125			-34.56213
3617.578125			-34.662296
3789.84375			-37.757904
3962.109375			-38.754681
4134.375			-37.835171
4306.640625			-39.476837
4478.90625			-37.799072
4651.171875			-37.467552
4823.4375			-36.957668
4995.703125			-37.316597
5167.96875			-37.732777
5340.234375			-38.470947
5512.5			-40.25782
5684.765625			-39.256226
5857.03125			-39.77626
6029.296875			-39.060188
6201.5625			-37.57515
6373.828125			-39.261299
6546.09375			-42.683304
6718.359375			-43.151047
6890.625			-43.548035
7062.890625			-42.632168
7235.15625			-41.179325
7407.421875			-41.96273
7579.6875			-42.581261
7751.953125			-43.44809
7924.21875			-43.356354
8096.484375			-43.183029
8268.75			-44.739357
8441.015625			-47.009552
8613.28125			-45.03949
8785.546875			-44.291901
8957.8125			-46.741051
9130.078125			-49.955582
9302.34375			-49.810192
9474.609375			-51.668793
9646.875			-51.861603
9819.140625			-49.151215
9991.40625			-51.764191
10163.67188			-51.922321
10335.9375			-50.11327
10508.20313			-52.213066
10680.46875			-52.156105
10852.73438			-50.803455
11025			-53.49786
11197.26563			-54.676224
11369.53125			-53.426559
11541.79688			-53.404873
11714.0625			-54.292843
11886.32813			-53.772896
12058.59375			-56.497589
12230.85938			-53.874447
12403.125			-52.512844
12575.39063			-56.713043
12747.65625			-57.608974
12919.92188			-59.009277
13092.1875			-59.619064
13264.45313			-58.284309
13436.71875			-57.225124
13608.98438			-57.907616
13781.25			-58.274055
13953.51563			-59.584843
14125.78125			-59.846478
14298.04688			-59.474506
14470.3125			-60.227989
14642.57813			-61.511608
14814.84375			-60.930222
14987.10938			-63.000359
15159.375			-61.520824
15331.64063			-62.460365
15503.90625			-64.101929
15676.17188			-65.032219
15848.4375			-65.393272
16020.70313			-66.20311
16192.96875			-65.708679
16365.23438			-65.121605
16537.5			-66.952919
16709.76563			-68.347733
16882.03125			-68.082359
17054.29688			-67.642952
17226.5625			-70.431801
17398.82813			-71.800247
17571.09375			-71.813309
17743.35938			-71.51387
17915.625			-71.477318
18087.89063			-73.416946
18260.15625			-71.570145
18432.42188			-72.193558
18604.6875			-72.419785
18776.95313			-74.357826
18949.21875			-75.752365
19121.48438			-72.966904
19293.75			-73.5728
19466.01563			-76.874321
19638.28125			-78.130898
19810.54688			-78.344582
19982.8125			-78.666786
20155.07813			-80.463387
20327.34375			-81.349586
20499.60938			-80.625786
20671.875			-83.2276
20844.14063			-84.345825
21016.40625			-86.547066
21188.67188			-87.727791
21360.9375			-87.490417
21533.20313			-88.019119
21705.46875			-88.200928
21877.73438			-87.66011
