Frequency (Hz)			Level (dB)
172.265625			-21.05864
344.53125			-19.687634
516.796875			-22.73456
689.0625			-26.049419
861.328125			-28.709431
1033.59375			-31.555475
1205.859375			-30.711435
1378.125			-35.484486
1550.390625			-33.785877
1722.65625			-37.68288
1894.921875			-37.325226
2067.1875			-39.035805
2239.453125			-42.936771
2411.71875			-42.769989
2583.984375			-48.7785
2756.25			-48.94841
2928.515625			-53.900837
3100.78125			-56.635746
3273.046875			-58.857201
3445.3125			-58.367828
3617.578125			-57.846771
3789.84375			-59.327957
3962.109375			-57.12764
4134.375			-60.326668
4306.640625			-58.097557
4478.90625			-61.176086
4651.171875			-62.329308
4823.4375			-62.784706
4995.703125			-69.366974
5167.96875			-69.702034
5340.234375			-74.507729
5512.5			-76.244621
5684.765625			-77.973541
5857.03125			-78.565216
6029.296875			-78.254318
6201.5625			-78.246475
6373.828125			-78.184334
6546.09375			-79.374031
6718.359375			-78.592041
6890.625			-78.689072
7062.890625			-76.953377
7235.15625			-78.074036
7407.421875			-75.592667
7579.6875			-75.922745
7751.953125			-76.203224
7924.21875			-75.164536
8096.484375			-76.633003
8268.75			-75.090424
8441.015625			-77.460121
8613.28125			-78.199013
8785.546875			-78.951363
8957.8125			-79.485619
9130.078125			-79.914413
9302.34375			-79.590088
9474.609375			-78.171227
9646.875			-81.202278
9819.140625			-83.148857
9991.40625			-82.825882
10163.67188			-83.283546
10335.9375			-83.718399
10508.20313			-84.061882
10680.46875			-84.010056
10852.73438			-83.926048
11025			-83.40081
11197.26563			-84.014519
11369.53125			-84.491173
11541.79688			-84.492165
11714.0625			-84.742615
11886.32813			-83.820747
12058.59375			-82.818604
12230.85938			-83.031868
12403.125			-83.305824
12575.39063			-83.556595
12747.65625			-83.631813
12919.92188			-83.494728
13092.1875			-83.539162
13264.45313			-84.087975
13436.71875			-84.418594
13608.98438			-84.625404
13781.25			-84.541306
13953.51563			-84.380295
14125.78125			-84.726723
14298.04688			-85.201523
14470.3125			-85.350014
14642.57813			-85.322159
14814.84375			-85.364014
14987.10938			-85.162453
15159.375			-85.415283
15331.64063			-85.875679
15503.90625			-86.207886
15676.17188			-86.518562
15848.4375			-86.43515
16020.70313			-86.266594
16192.96875			-86.799911
16365.23438			-87.302666
16537.5			-87.875427
16709.76563			-88.385735
16882.03125			-88.308327
17054.29688			-87.826393
17226.5625			-89.876144
17398.82813			-94.130852
17571.09375			-97.347755
17743.35938			-98.472946
17915.625			-98.83432
18087.89063			-100.164497
18260.15625			-102.139214
18432.42188			-100.619926
18604.6875			-98.846733
18776.95313			-104.450935
18949.21875			-112.543213
19121.48438			-114.327744
19293.75			-114.343079
19466.01563			-114.331642
19638.28125			-114.388138
19810.54688			-114.366631
19982.8125			-114.441254
20155.07813			-114.451889
20327.34375			-114.356354
20499.60938			-114.383797
20671.875			-114.441757
20844.14063			-114.489815
21016.40625			-114.449928
21188.67188			-114.375595
21360.9375			-114.406364
21533.20313			-114.408791
21705.46875			-114.379997
21877.73438			-114.390877
